# This list of sources to mask was generated from TC's lists at
# /spt3gsoftware/sources/spt3g_1500d_source_list_tc_05mar19.txt and
# /spt3gsoftware/sources/spt3g_1500d_decrement_list_tc_01apr19.txt.
# I removed all the sources with a "bad flag" value of 1, as well
# as all those with a S/N less than 10 in the 90 GHz band.  I also
# re-formatted to work with the 3g mapmaker.  Note that
# sources are listed first, followed by SZ clusters.  The radius
# value was taken from SPTpol's point source list, and may change
# slightly when 3G's beam measurements become more accurate.
# - Kyle Ferguson, Apr 9, 2019
#
#
# Index	 RA (deg)	 Dec (deg)	 Radius (deg)	 Flux (mJy)
#
1	 0.23700	 -45.97400	 0.0833		 20.97800
2	 0.68600	 -48.27100	 0.0833		 13.05100
3	 0.72200	 -56.35600	 0.0833		 12.99200
4	 0.72300	 -59.80400	 0.0833		 48.92900
5	 0.76400	 -55.50300	 0.0833		 23.05700
6	 0.76700	 -52.96700	 0.0833		 11.67700
7	 0.78700	 -54.75100	 0.0833		 41.97000
8	 0.81100	 -59.09800	 0.0833		 12.89800
9	 0.84000	 -57.96000	 0.0833		 11.45700
10	 0.98400	 -53.73200	 0.0833		 25.96500
11	 1.02400	 -43.76100	 0.0833		 82.55800
12	 1.05100	 -52.91900	 0.0833		 26.45200
13	 1.07900	 -55.78400	 0.0833		 19.28800
14	 1.12200	 -41.96100	 0.0833		 26.51000
15	 1.14500	 -47.61100	 0.0833		 225.20800
16	 1.19100	 -48.41900	 0.0833		 12.40800
17	 1.20700	 -66.25200	 0.0833		 15.78600
18	 1.35300	 -55.70500	 0.0833		 11.80900
19	 1.36900	 -62.38300	 0.0833		 14.53300
20	 1.48900	 -56.47800	 0.0833		 42.43000
21	 1.50400	 -42.58800	 0.0833		 13.65700
22	 1.51900	 -60.59600	 0.0833		 11.90600
23	 1.55700	 -56.34800	 0.0833		 11.53100
24	 1.57400	 -42.76500	 0.0833		 38.50200
25	 1.69500	 -46.36400	 0.0833		 12.01600
26	 1.81100	 -51.39200	 0.0833		 13.02300
27	 1.84100	 -61.21800	 0.0833		 58.43200
28	 1.92400	 -45.82500	 0.0833		 33.94700
29	 2.00100	 -52.73100	 0.0833		 189.92000
30	 2.14800	 -50.16500	 0.0833		 17.01400
31	 2.15300	 -46.33500	 0.0833		 28.35400
32	 2.28700	 -46.22600	 0.0833		 78.39000
33	 2.29400	 -54.97000	 0.0833		 13.52700
34	 2.33400	 -51.50600	 0.0833		 22.75700
35	 2.41200	 -63.95700	 0.0833		 37.34800
36	 2.48800	 -57.02100	 0.0833		 11.84600
37	 2.52900	 -68.85100	 0.0833		 13.02800
38	 2.60100	 -41.50900	 0.0833		 15.90800
39	 2.78800	 -50.19700	 0.0833		 38.75500
40	 2.84400	 -64.15200	 0.0833		 14.68600
41	 2.96200	 -41.10400	 0.0833		 50.61800
42	 3.34300	 -50.09200	 0.0833		 124.83800
43	 3.60900	 -56.64200	 0.0833		 25.44500
44	 3.68200	 -51.37700	 0.0833		 12.90700
45	 3.72700	 -64.46800	 0.0833		 15.37100
46	 3.92500	 -61.95100	 0.0833		 12.88200
47	 3.96600	 -45.19000	 0.0833		 21.46800
48	 4.01300	 -63.16900	 0.0833		 11.69600
49	 4.44600	 -69.56000	 0.0833		 12.46300
50	 4.63200	 -42.04300	 0.0833		 182.17800
51	 4.67300	 -45.96900	 0.0833		 112.72800
52	 4.69600	 -51.25300	 0.0833		 39.60400
53	 4.71100	 -49.50300	 0.0833		 22.03300
54	 4.82800	 -62.98600	 0.0833		 17.63000
55	 4.86100	 -56.69800	 0.0833		 177.41600
56	 4.88000	 -42.44900	 0.0833		 24.79100
57	 4.93600	 -49.37100	 0.0833		 14.31300
58	 4.98100	 -62.88000	 0.0833		 11.88000
59	 5.08800	 -48.79000	 0.0833		 24.59600
60	 5.17800	 -56.55700	 0.0833		 26.16400
61	 5.49100	 -51.67600	 0.0833		 17.17400
62	 5.53000	 -53.87900	 0.0833		 14.63900
63	 5.63200	 -51.89100	 0.0833		 37.81600
64	 5.75800	 -56.83700	 0.0833		 63.27500
65	 5.78800	 -65.11200	 0.0833		 14.10800
66	 5.79400	 -63.07600	 0.0833		 15.94300
67	 5.93200	 -59.51000	 0.0833		 75.51100
68	 5.95500	 -58.20400	 0.0833		 13.69200
69	 6.03700	 -68.34300	 0.0833		 308.85300
70	 6.17400	 -42.04200	 0.0833		 16.88300
71	 6.28100	 -68.38400	 0.0833		 20.59000
72	 6.28900	 -54.46400	 0.0833		 28.27700
73	 6.32400	 -60.47500	 0.0833		 17.01100
74	 6.43600	 -48.07000	 0.0833		 148.31100
75	 6.62700	 -47.68400	 0.0833		 16.15400
76	 6.66100	 -49.32000	 0.0833		 14.13200
77	 6.70600	 -51.70400	 0.0833		 12.18600
78	 6.80100	 -49.85000	 0.0833		 12.11100
79	 6.80800	 -45.34600	 0.0833		 15.82900
80	 6.92500	 -66.05900	 0.0833		 18.40700
81	 7.04600	 -44.26400	 0.0833		 36.43400
82	 7.18900	 -70.74900	 0.0833		 36.13800
83	 7.25900	 -67.92500	 0.0833		 23.79100
84	 7.26400	 -51.94700	 0.0833		 13.64100
85	 7.29500	 -56.59200	 0.0833		 23.76700
86	 7.49000	 -51.96100	 0.0833		 15.13900
87	 7.56700	 -42.42200	 0.0833		 450.96200
88	 7.63200	 -54.63100	 0.0833		 23.41200
89	 7.88600	 -51.72600	 0.0833		 47.50300
90	 7.92200	 -70.54700	 0.0833		 15.65500
91	 8.14600	 -42.10200	 0.0833		 13.09400
92	 8.44500	 -42.61300	 0.0833		 53.35100
93	 8.46900	 -56.94700	 0.0833		 35.34300
94	 8.49500	 -65.43500	 0.0833		 11.45100
95	 8.51200	 -41.28100	 0.0833		 53.47400
96	 8.53500	 -70.42400	 0.0833		 23.43800
97	 8.64800	 -53.11900	 0.0833		 11.49500
98	 8.77200	 -57.43900	 0.0833		 21.13800
99	 9.00600	 -69.00600	 0.0833		 21.98100
100	 9.31400	 -48.14000	 0.0833		 30.04600
101	 9.36100	 -59.30200	 0.0833		 25.30600
102	 9.39100	 -53.12900	 0.0833		 35.65300
103	 9.40300	 -47.55100	 0.0833		 13.88700
104	 9.49100	 -65.93100	 0.0833		 13.72700
105	 9.60100	 -41.88100	 0.0833		 13.16700
106	 9.69100	 -62.51800	 0.0833		 40.39400
107	 9.72400	 -42.68000	 0.0833		 13.10900
108	 10.02700	 -52.06600	 0.0833		 14.60600
109	 10.03500	 -59.06500	 0.0833		 51.84400
110	 10.12900	 -42.89400	 0.0833		 30.70500
111	 10.15300	 -50.96900	 0.0833		 12.91500
112	 10.20200	 -56.21800	 0.0833		 13.78000
113	 10.53100	 -44.24100	 0.0833		 31.86700
114	 10.59800	 -43.56900	 0.0833		 55.11900
115	 10.60600	 -68.97600	 0.0833		 20.69400
116	 10.86900	 -60.85100	 0.0833		 19.31500
117	 11.33600	 -54.79500	 0.0833		 19.09300
118	 11.42100	 -48.78300	 0.0833		 38.76800
119	 11.49100	 -44.90900	 0.0833		 12.95000
120	 11.56200	 -42.13600	 0.0833		 108.19800
121	 11.58200	 -50.11300	 0.0833		 16.73300
122	 11.64700	 -70.97500	 0.0833		 27.05600
123	 11.67500	 -69.51800	 0.0833		 21.76100
124	 11.73500	 -61.62600	 0.0833		 19.21200
125	 11.75900	 -55.94200	 0.0833		 13.57900
126	 12.01900	 -42.55600	 0.0833		 12.14900
127	 12.18300	 -58.28400	 0.0833		 12.68400
128	 12.26700	 -55.35500	 0.0833		 56.46800
129	 12.27300	 -64.42100	 0.0833		 12.52800
130	 12.31400	 -44.96000	 0.0833		 126.81400
131	 12.42000	 -70.86300	 0.0833		 174.70300
132	 12.44400	 -54.04900	 0.0833		 16.72800
133	 12.50000	 -57.64300	 0.0833		 571.37800
134	 12.72900	 -49.68100	 0.0833		 26.29300
135	 12.78300	 -42.45100	 0.0833		 341.80500
136	 12.82600	 -62.70100	 0.0833		 17.91000
137	 13.05600	 -43.11700	 0.0833		 31.93200
138	 13.14400	 -62.23100	 0.0833		 16.38800
139	 13.16600	 -53.19900	 0.0833		 15.52800
140	 13.17600	 -49.79700	 0.0833		 33.91600
141	 13.17600	 -44.78900	 0.0833		 25.54100
142	 13.23200	 -60.56700	 0.0833		 12.25600
143	 13.55500	 -62.25600	 0.0833		 29.35100
144	 13.78400	 -41.42600	 0.0833		 18.59300
145	 13.95600	 -61.39300	 0.0833		 33.18800
146	 13.95700	 -61.60800	 0.0833		 48.79000
147	 14.01300	 -52.70100	 0.0833		 40.26700
148	 14.04500	 -44.56700	 0.0833		 15.86000
149	 14.16700	 -52.97800	 0.0833		 14.04600
150	 14.18300	 -46.68000	 0.0833		 35.88900
151	 14.18600	 -44.85800	 0.0833		 58.43400
152	 14.26400	 -47.45300	 0.0833		 11.86900
153	 14.26600	 -52.24200	 0.0833		 47.83300
154	 14.33100	 -70.67200	 0.0833		 69.87500
155	 14.33200	 -48.90500	 0.0833		 13.20300
156	 14.68600	 -59.53100	 0.0833		 12.36700
157	 14.69100	 -47.24600	 0.0833		 12.98000
158	 14.69500	 -56.98900	 0.0833		 785.52800
159	 14.72700	 -52.32700	 0.0833		 52.31100
160	 14.78200	 -60.04200	 0.0833		 12.08200
161	 14.80300	 -57.71600	 0.0833		 12.77000
162	 14.84000	 -61.44600	 0.0833		 36.64600
163	 14.92200	 -63.47600	 0.0833		 41.46100
164	 15.16400	 -47.97700	 0.0833		 13.59200
165	 15.19100	 -50.54300	 0.0833		 20.62900
166	 15.31900	 -62.54900	 0.0833		 133.94400
167	 15.42300	 -45.73200	 0.0833		 12.00600
168	 15.45100	 -56.13800	 0.0833		 16.17100
169	 15.54400	 -56.62000	 0.0833		 139.73000
170	 15.77000	 -51.15800	 0.0833		 33.82900
171	 15.85500	 -45.82500	 0.0833		 35.86800
172	 15.89300	 -64.65000	 0.0833		 372.75400
173	 15.96500	 -63.84800	 0.0833		 43.08100
174	 16.03200	 -56.95700	 0.0833		 61.45100
175	 16.38700	 -61.23600	 0.0833		 16.83000
176	 16.51600	 -47.90400	 0.0833		 28.88300
177	 16.63100	 -46.65000	 0.0833		 23.95700
178	 16.72600	 -48.52900	 0.0833		 28.70500
179	 16.79400	 -55.34600	 0.0833		 15.03100
180	 16.97100	 -68.71800	 0.0833		 15.84000
181	 17.31800	 -60.83000	 0.0833		 106.05400
182	 17.40200	 -59.80400	 0.0833		 49.75900
183	 17.57600	 -63.26400	 0.0833		 87.66200
184	 17.68100	 -45.12000	 0.0833		 37.57500
185	 17.75600	 -47.82300	 0.0833		 19.83000
186	 17.93200	 -68.99300	 0.0833		 15.08900
187	 18.08400	 -66.57500	 0.0833		 314.71300
188	 18.16600	 -43.08700	 0.0833		 17.20200
189	 18.30400	 -67.88000	 0.0833		 60.09200
190	 18.34400	 -53.50100	 0.0833		 18.29700
191	 18.50600	 -70.41800	 0.0833		 20.95000
192	 18.61600	 -43.63500	 0.0833		 13.38600
193	 18.74200	 -62.48400	 0.0833		 12.78300
194	 18.91800	 -58.41600	 0.0833		 14.70200
195	 18.97700	 -50.50200	 0.0833		 36.45900
196	 19.07900	 -47.74100	 0.0833		 11.57200
197	 19.09700	 -46.55000	 0.0833		 20.75000
198	 19.10100	 -47.39000	 0.0833		 13.93200
199	 19.20200	 -54.78000	 0.0833		 23.44300
200	 19.23900	 -65.36300	 0.0833		 56.28900
201	 19.54700	 -69.76000	 0.0833		 31.76900
202	 19.58600	 -69.85700	 0.0833		 14.20300
203	 19.58800	 -45.66400	 0.0833		 12.47100
204	 19.60000	 -60.13300	 0.0833		 27.28100
205	 19.61300	 -51.26100	 0.0833		 54.98900
206	 19.66000	 -45.45800	 0.0833		 15.48200
207	 19.68200	 -41.05000	 0.0833		 29.79300
208	 19.70200	 -48.35900	 0.0833		 15.13500
209	 19.71800	 -42.06700	 0.0833		 19.08500
210	 19.77100	 -69.49100	 0.0833		 19.72400
211	 19.92800	 -68.15300	 0.0833		 11.82500
212	 19.95300	 -53.95800	 0.0833		 62.66900
213	 20.03000	 -52.18700	 0.0833		 27.08500
214	 20.42600	 -63.15100	 0.0833		 24.72900
215	 20.54900	 -69.56100	 0.0833		 13.51600
216	 20.73200	 -44.86800	 0.0833		 20.19500
217	 20.94800	 -46.39500	 0.0833		 69.01700
218	 20.98800	 -41.52600	 0.0833		 12.66700
219	 21.23300	 -51.22500	 0.0833		 89.39700
220	 21.25500	 -53.42100	 0.0833		 39.91400
221	 21.25700	 -70.30900	 0.0833		 21.36300
222	 21.38500	 -59.01300	 0.0833		 13.64300
223	 21.42100	 -61.05400	 0.0833		 19.05400
224	 21.59400	 -51.05800	 0.0833		 63.26300
225	 21.80800	 -48.23100	 0.0833		 346.56900
226	 21.97600	 -51.61300	 0.0833		 23.10600
227	 21.97900	 -53.49900	 0.0833		 36.07700
228	 22.05400	 -59.56300	 0.0833		 19.27400
229	 22.08500	 -56.83000	 0.0833		 78.63500
230	 22.13600	 -52.92500	 0.0833		 20.28200
231	 22.13900	 -47.94200	 0.0833		 12.55800
232	 22.25000	 -54.22700	 0.0833		 12.02400
233	 22.39000	 -43.15700	 0.0833		 22.86400
234	 22.59700	 -46.08500	 0.0833		 13.23300
235	 22.70500	 -68.49800	 0.0833		 13.10200
236	 22.95100	 -51.86900	 0.0833		 24.21900
237	 22.99300	 -63.73700	 0.0833		 28.85500
238	 23.11600	 -61.77600	 0.0833		 18.41100
239	 23.13000	 -46.08600	 0.0833		 12.53700
240	 23.17000	 -65.38800	 0.0833		 14.13700
241	 23.24900	 -44.52100	 0.0833		 54.35600
242	 23.26600	 -44.77300	 0.0833		 24.45000
243	 23.26700	 -52.00500	 0.0833		 1026.66500
244	 23.27200	 -44.24800	 0.0833		 18.77200
245	 23.38600	 -44.74500	 0.0833		 48.46300
246	 23.39600	 -52.35400	 0.0833		 25.91200
247	 23.53200	 -55.43900	 0.0833		 17.73400
248	 23.63200	 -53.92300	 0.0833		 14.94500
249	 23.82300	 -50.09500	 0.0833		 29.64500
250	 23.84600	 -48.53400	 0.0833		 18.65300
251	 23.91200	 -51.83200	 0.0833		 31.78800
252	 23.92800	 -42.29000	 0.0833		 54.08200
253	 23.94600	 -52.74300	 0.0833		 22.89500
254	 23.98600	 -66.04300	 0.0833		 16.80000
255	 24.35700	 -54.66400	 0.0833		 13.23800
256	 24.63700	 -46.24500	 0.0833		 28.20600
257	 24.65900	 -42.53700	 0.0833		 20.75400
258	 24.89000	 -69.15300	 0.0833		 25.10100
259	 24.91500	 -47.53900	 0.0833		 48.57600
260	 24.95200	 -52.30000	 0.0833		 46.24600
261	 24.97600	 -43.92600	 0.0833		 44.72600
262	 25.18500	 -47.42900	 0.0833		 18.11700
263	 25.37400	 -54.46700	 0.0833		 12.96000
264	 25.42200	 -56.84700	 0.0833		 32.25600
265	 25.44900	 -47.61200	 0.0833		 30.75600
266	 25.52300	 -42.10900	 0.0833		 27.63700
267	 25.60800	 -57.50100	 0.0833		 81.56500
268	 25.72700	 -68.91000	 0.0833		 15.34900
269	 25.74300	 -60.74800	 0.0833		 48.40500
270	 25.81700	 -57.36200	 0.0833		 22.94300
271	 25.86200	 -66.19300	 0.0833		 30.10200
272	 26.07200	 -64.36000	 0.0833		 136.35200
273	 26.29400	 -55.72900	 0.0833		 18.39600
274	 26.48100	 -67.77600	 0.0833		 17.41200
275	 26.68100	 -60.12000	 0.0833		 11.43200
276	 26.69400	 -52.04700	 0.0833		 94.84800
277	 26.84000	 -42.58400	 0.0833		 11.97100
278	 27.11200	 -69.66000	 0.0833		 12.96900
279	 27.46000	 -49.47700	 0.0833		 12.76600
280	 27.58900	 -55.41700	 0.0833		 11.47600
281	 27.68400	 -68.37900	 0.0833		 21.59900
282	 27.71200	 -60.73600	 0.0833		 18.69900
283	 27.73800	 -58.50000	 0.0833		 23.52700
284	 28.02200	 -46.87800	 0.0833		 31.64400
285	 28.38600	 -49.05300	 0.0833		 22.56400
286	 28.48700	 -54.11700	 0.0833		 34.66900
287	 28.57400	 -51.13500	 0.0833		 80.64800
288	 28.63500	 -66.06800	 0.0833		 124.67100
289	 28.68600	 -69.65800	 0.0833		 13.05300
290	 28.76500	 -41.91200	 0.0833		 19.22700
291	 28.79700	 -64.42000	 0.0833		 36.41500
292	 28.98000	 -51.43100	 0.0833		 12.90000
293	 29.18800	 -47.74400	 0.0833		 20.29800
294	 29.20100	 -54.66600	 0.0833		 42.56700
295	 29.28600	 -46.01800	 0.0833		 54.32400
296	 29.33600	 -54.37900	 0.0833		 17.46100
297	 29.40100	 -49.26000	 0.0833		 19.72700
298	 29.41800	 -42.59100	 0.0833		 21.24900
299	 29.45800	 -46.24600	 0.0833		 55.62900
300	 29.54500	 -56.50400	 0.0833		 18.80300
301	 29.56200	 -50.07700	 0.0833		 43.41200
302	 29.57100	 -47.21800	 0.0833		 20.44500
303	 29.61000	 -58.18400	 0.0833		 66.83900
304	 29.65900	 -64.18900	 0.0833		 42.47500
305	 29.66400	 -64.31900	 0.0833		 37.16700
306	 29.73800	 -63.58000	 0.0833		 23.38800
307	 29.77000	 -45.26700	 0.0833		 38.15600
308	 29.80300	 -53.15200	 0.0833		 13.69800
309	 29.80400	 -47.10900	 0.0833		 14.75900
310	 29.83000	 -60.93100	 0.0833		 13.97200
311	 30.21000	 -50.78200	 0.0833		 12.19600
312	 30.28800	 -66.63300	 0.0833		 193.88000
313	 30.68000	 -69.20600	 0.0833		 20.58600
314	 30.72800	 -44.27800	 0.0833		 14.13500
315	 30.81900	 -55.95500	 0.0833		 28.65100
316	 30.91400	 -43.83700	 0.0833		 23.10900
317	 30.98800	 -68.77700	 0.0833		 19.45100
318	 31.18800	 -50.06600	 0.0833		 15.49000
319	 31.19300	 -55.05100	 0.0833		 31.54200
320	 31.41200	 -65.82400	 0.0833		 15.41000
321	 31.45500	 -55.85900	 0.0833		 19.35500
322	 31.67200	 -61.72400	 0.0833		 112.15400
323	 31.81300	 -48.38600	 0.0833		 13.28100
324	 31.82600	 -70.47200	 0.0833		 17.61100
325	 31.97200	 -68.62700	 0.0833		 102.69700
326	 32.00900	 -62.27400	 0.0833		 36.82400
327	 32.14100	 -68.10700	 0.0833		 24.21900
328	 32.30600	 -62.49000	 0.0833		 11.67300
329	 32.33200	 -52.49300	 0.0833		 27.45500
330	 32.52600	 -43.12200	 0.0833		 17.05800
331	 32.55500	 -65.78000	 0.0833		 21.67300
332	 32.55500	 -66.59300	 0.0833		 15.28300
333	 32.68500	 -51.02200	 0.0833		 3819.56300
334	 32.70500	 -43.69300	 0.0833		 14.44500
335	 32.91500	 -43.00300	 0.0833		 11.72000
336	 33.08500	 -43.48100	 0.0833		 17.97200
337	 33.14600	 -50.07600	 0.0833		 12.06200
338	 33.50300	 -61.30000	 0.0833		 18.18500
339	 33.53000	 -70.44500	 0.0833		 98.39300
340	 33.54500	 -58.37000	 0.0833		 65.71900
341	 33.57200	 -61.82400	 0.0833		 194.28700
342	 33.57800	 -51.47800	 0.0833		 12.00900
343	 33.74500	 -60.20600	 0.0833		 12.24600
344	 33.80100	 -67.68100	 0.0833		 23.55300
345	 33.80300	 -64.24000	 0.0833		 12.45000
346	 33.80400	 -65.33600	 0.0833		 51.34200
347	 33.82300	 -51.08700	 0.0833		 14.36600
348	 34.00700	 -52.00800	 0.0833		 34.84000
349	 34.03800	 -55.75600	 0.0833		 12.29500
350	 34.12300	 -45.46000	 0.0833		 13.23800
351	 34.18000	 -44.78700	 0.0833		 25.32400
352	 34.18200	 -47.82500	 0.0833		 51.61500
353	 34.21400	 -66.60500	 0.0833		 31.43300
354	 34.29000	 -57.30700	 0.0833		 25.57500
355	 34.36400	 -59.86300	 0.0833		 26.76100
356	 34.52200	 -49.34900	 0.0833		 17.18200
357	 34.55000	 -47.30600	 0.0833		 31.88100
358	 34.64000	 -55.06600	 0.0833		 30.97500
359	 34.84000	 -48.10400	 0.0833		 14.66500
360	 34.89800	 -42.96600	 0.0833		 25.33200
361	 34.93000	 -68.10000	 0.0833		 53.68700
362	 34.99500	 -58.66600	 0.0833		 14.89900
363	 35.04100	 -70.36600	 0.0833		 18.86000
364	 35.23200	 -63.50300	 0.0833		 194.60800
365	 35.29600	 -49.58400	 0.0833		 15.28000
366	 35.36700	 -47.22200	 0.0833		 39.31800
367	 35.39000	 -58.62500	 0.0833		 31.96300
368	 35.46600	 -56.79400	 0.0833		 50.29500
369	 35.49200	 -64.09100	 0.0833		 30.56100
370	 35.55600	 -51.11200	 0.0833		 23.46200
371	 35.56900	 -66.19500	 0.0833		 16.75000
372	 35.70200	 -60.68800	 0.0833		 22.48600
373	 35.77200	 -53.71500	 0.0833		 30.66700
374	 35.87300	 -53.79700	 0.0833		 115.77900
375	 35.88000	 -56.11100	 0.0833		 17.46000
376	 35.91900	 -56.00900	 0.0833		 13.12400
377	 35.97900	 -59.23500	 0.0833		 11.91700
378	 36.08100	 -70.71600	 0.0833		 55.20400
379	 36.21100	 -69.90200	 0.0833		 22.14400
380	 36.37100	 -52.43400	 0.0833		 30.17000
381	 36.42600	 -45.06100	 0.0833		 197.52600
382	 36.61000	 -59.24500	 0.0833		 12.00000
383	 36.66700	 -42.93600	 0.0833		 14.02100
384	 36.70900	 -52.88400	 0.0833		 12.58000
385	 36.71200	 -61.34900	 0.0833		 15.69900
386	 36.71800	 -60.27200	 0.0833		 11.66600
387	 36.77700	 -63.52500	 0.0833		 15.17900
388	 36.91500	 -44.43400	 0.0833		 16.92400
389	 36.97800	 -61.97000	 0.0833		 12.95400
390	 37.00600	 -49.03000	 0.0833		 31.72800
391	 37.08500	 -55.76900	 0.0833		 495.45100
392	 37.19900	 -48.67400	 0.0833		 31.23900
393	 37.29000	 -69.36400	 0.0833		 26.27900
394	 37.29600	 -54.05900	 0.0833		 76.76400
395	 37.34900	 -52.54400	 0.0833		 54.57700
396	 37.50700	 -43.38400	 0.0833		 12.59900
397	 37.53600	 -45.06800	 0.0833		 14.24300
398	 37.54400	 -59.85500	 0.0833		 12.71800
399	 37.55300	 -62.24100	 0.0833		 45.23300
400	 37.79000	 -57.92000	 0.0833		 66.01900
401	 37.79500	 -47.77500	 0.0833		 285.93600
402	 37.82500	 -58.68700	 0.0833		 50.44600
403	 37.93100	 -67.88500	 0.0833		 18.85500
404	 38.43200	 -44.32400	 0.0833		 15.99500
405	 38.48000	 -50.51000	 0.0833		 28.03900
406	 38.48000	 -46.53200	 0.0833		 12.52000
407	 38.77200	 -47.62400	 0.0833		 32.23800
408	 38.80500	 -47.16400	 0.0833		 113.83800
409	 39.00100	 -41.78000	 0.0833		 13.99300
410	 39.07900	 -44.08200	 0.0833		 14.91400
411	 39.22700	 -61.60300	 0.0833		 199.34600
412	 39.44300	 -67.46700	 0.0833		 11.94100
413	 39.84000	 -51.14200	 0.0833		 27.13900
414	 40.09800	 -48.38200	 0.0833		 20.72900
415	 40.16200	 -54.49500	 0.0833		 19.94900
416	 40.30500	 -59.17400	 0.0833		 11.47000
417	 40.39600	 -49.42100	 0.0833		 45.56500
418	 40.58100	 -55.12500	 0.0833		 16.14400
419	 40.64200	 -42.03700	 0.0833		 12.49000
420	 40.71200	 -47.75800	 0.0833		 28.56900
421	 40.79900	 -51.09200	 0.0833		 38.78200
422	 40.85400	 -57.65000	 0.0833		 24.60700
423	 40.86300	 -56.21400	 0.0833		 18.37000
424	 40.97500	 -45.71800	 0.0833		 16.31800
425	 41.11400	 -69.26600	 0.0833		 11.82400
426	 41.16600	 -58.33200	 0.0833		 18.15200
427	 41.22200	 -59.80100	 0.0833		 24.68400
428	 41.41300	 -52.96900	 0.0833		 15.46600
429	 41.47000	 -45.00100	 0.0833		 251.90000
430	 41.49600	 -46.86000	 0.0833		 715.32900
431	 41.55500	 -49.90300	 0.0833		 92.91400
432	 41.66600	 -59.92400	 0.0833		 22.46400
433	 41.68700	 -50.43400	 0.0833		 16.08300
434	 41.76500	 -47.25900	 0.0833		 24.06400
435	 41.80200	 -63.42500	 0.0833		 66.38400
436	 42.44800	 -55.94100	 0.0833		 25.11300
437	 42.65600	 -63.91600	 0.0833		 38.47500
438	 42.79400	 -52.14000	 0.0833		 18.49500
439	 42.80700	 -68.03000	 0.0833		 18.50100
440	 42.81400	 -51.57300	 0.0833		 18.22900
441	 42.86200	 -60.00200	 0.0833		 241.24700
442	 42.87100	 -66.61000	 0.0833		 19.58100
443	 42.87600	 -42.61200	 0.0833		 18.38900
